%  AIfA EU-HOU server: LAB  survey data 
% wanted position:  l, b, RA, DEC, interpolated  NH and beam width FWHM
% 71.54 ;  24.72 ; 273.76 ;  44.04 ;  0.333E+21;  19.99
%%LAB     777  datapoints: v_lsr [km/s], T_B [K], freq. [Mhz], wavel. [cm] 
    -399.83      0.00   1422.300   21.07800
    -398.80      0.00   1422.295   21.07808
    -397.77     -0.00   1422.290   21.07815
    -396.74     -0.00   1422.285   21.07822
    -395.71     -0.00   1422.281   21.07829
    -394.67     -0.00   1422.276   21.07836
    -393.64     -0.00   1422.271   21.07844
    -392.61     -0.00   1422.266   21.07851
    -391.58     -0.00   1422.261   21.07858
    -390.55     -0.00   1422.256   21.07866
    -389.52     -0.00   1422.251   21.07873
    -388.49     -0.00   1422.246   21.07880
    -387.46     -0.00   1422.242   21.07887
    -386.43     -0.00   1422.237   21.07894
    -385.40     -0.00   1422.232   21.07902
    -384.37     -0.00   1422.227   21.07909
    -383.34     -0.00   1422.222   21.07916
    -382.31     -0.00   1422.217   21.07923
    -381.28     -0.00   1422.212   21.07931
    -380.25     -0.00   1422.207   21.07938
    -379.22     -0.00   1422.203   21.07945
    -378.19     -0.00   1422.198   21.07952
    -377.16      0.00   1422.193   21.07960
    -376.13      0.01   1422.188   21.07967
    -375.10      0.00   1422.183   21.07974
    -374.07     -0.00   1422.178   21.07981
    -373.03     -0.00   1422.173   21.07988
    -372.00     -0.00   1422.168   21.07996
    -370.97     -0.00   1422.163   21.08003
    -369.94     -0.00   1422.159   21.08010
    -368.91     -0.00   1422.154   21.08017
    -367.88     -0.00   1422.149   21.08025
    -366.85      0.00   1422.144   21.08032
    -365.82      0.00   1422.139   21.08039
    -364.79      0.00   1422.134   21.08047
    -363.76     -0.00   1422.129   21.08054
    -362.73     -0.00   1422.124   21.08061
    -361.70     -0.00   1422.120   21.08068
    -360.67     -0.00   1422.115   21.08075
    -359.64     -0.00   1422.110   21.08082
    -358.61     -0.00   1422.105   21.08090
    -357.58     -0.00   1422.100   21.08097
    -356.55      0.00   1422.095   21.08104
    -355.52      0.00   1422.090   21.08111
    -354.49      0.00   1422.085   21.08119
    -353.46     -0.00   1422.080   21.08126
    -352.43     -0.00   1422.075   21.08133
    -351.39     -0.00   1422.071   21.08140
    -350.36     -0.00   1422.066   21.08148
    -349.33     -0.00   1422.061   21.08155
    -348.30     -0.00   1422.056   21.08162
    -347.27     -0.00   1422.051   21.08169
    -346.24     -0.00   1422.046   21.08177
    -345.21     -0.00   1422.042   21.08184
    -344.18     -0.00   1422.036   21.08191
    -343.15     -0.00   1422.032   21.08198
    -342.12     -0.00   1422.027   21.08206
    -341.09     -0.00   1422.022   21.08213
    -340.06     -0.00   1422.017   21.08220
    -339.03     -0.00   1422.012   21.08227
    -338.00     -0.00   1422.007   21.08234
    -336.97     -0.00   1422.002   21.08242
    -335.94     -0.00   1421.997   21.08249
    -334.91      0.00   1421.993   21.08256
    -333.88      0.00   1421.988   21.08264
    -332.85     -0.00   1421.983   21.08271
    -331.82      0.00   1421.978   21.08278
    -330.78      0.00   1421.973   21.08285
    -329.75      0.00   1421.968   21.08292
    -328.72      0.00   1421.963   21.08300
    -327.69      0.00   1421.958   21.08307
    -326.66      0.00   1421.953   21.08314
    -325.63      0.00   1421.949   21.08321
    -324.60      0.00   1421.944   21.08329
    -323.57      0.00   1421.939   21.08336
    -322.54      0.00   1421.934   21.08343
    -321.51      0.00   1421.929   21.08351
    -320.48     -0.00   1421.924   21.08358
    -319.45     -0.00   1421.919   21.08365
    -318.42      0.00   1421.914   21.08372
    -317.39      0.00   1421.910   21.08379
    -316.36      0.00   1421.905   21.08386
    -315.33      0.00   1421.900   21.08394
    -314.30      0.00   1421.895   21.08401
    -313.27      0.00   1421.890   21.08408
    -312.24      0.01   1421.885   21.08415
    -311.21      0.01   1421.880   21.08423
    -310.18      0.01   1421.875   21.08430
    -309.14      0.00   1421.870   21.08437
    -308.11      0.00   1421.865   21.08445
    -307.08      0.00   1421.861   21.08452
    -306.05      0.00   1421.856   21.08459
    -305.02      0.00   1421.851   21.08466
    -303.99      0.00   1421.846   21.08473
    -302.96      0.00   1421.841   21.08481
    -301.93      0.00   1421.836   21.08488
    -300.90      0.00   1421.832   21.08495
    -299.87      0.01   1421.827   21.08502
    -298.84      0.01   1421.822   21.08510
    -297.81      0.01   1421.817   21.08517
    -296.78      0.01   1421.812   21.08524
    -295.75      0.01   1421.807   21.08532
    -294.72      0.01   1421.802   21.08538
    -293.69      0.01   1421.797   21.08546
    -292.66      0.01   1421.792   21.08553
    -291.63      0.00   1421.787   21.08560
    -290.60      0.00   1421.783   21.08568
    -289.57      0.00   1421.778   21.08575
    -288.54      0.01   1421.773   21.08582
    -287.50      0.00   1421.768   21.08589
    -286.47      0.00   1421.763   21.08596
    -285.44      0.00   1421.758   21.08604
    -284.41      0.00   1421.753   21.08611
    -283.38      0.00   1421.748   21.08618
    -282.35      0.00   1421.744   21.08625
    -281.32      0.00   1421.739   21.08633
    -280.29      0.01   1421.734   21.08640
    -279.26      0.01   1421.729   21.08647
    -278.23      0.01   1421.724   21.08654
    -277.20      0.00   1421.719   21.08662
    -276.17      0.00   1421.714   21.08669
    -275.14      0.01   1421.709   21.08676
    -274.11      0.01   1421.704   21.08683
    -273.08      0.01   1421.700   21.08691
    -272.05      0.00   1421.695   21.08698
    -271.02      0.00   1421.690   21.08705
    -269.99      0.00   1421.685   21.08712
    -268.96      0.00   1421.680   21.08720
    -267.93      0.01   1421.675   21.08727
    -266.89      0.00   1421.670   21.08734
    -265.86      0.00   1421.665   21.08741
    -264.83      0.00   1421.661   21.08749
    -263.80      0.00   1421.656   21.08756
    -262.77      0.00   1421.651   21.08763
    -261.74      0.00   1421.646   21.08770
    -260.71      0.01   1421.641   21.08778
    -259.68      0.01   1421.636   21.08785
    -258.65      0.01   1421.631   21.08792
    -257.62      0.00   1421.626   21.08799
    -256.59      0.00   1421.621   21.08807
    -255.56      0.01   1421.617   21.08814
    -254.53      0.00   1421.612   21.08821
    -253.50      0.00   1421.607   21.08828
    -252.47      0.00   1421.602   21.08835
    -251.44      0.00   1421.597   21.08842
    -250.41      0.00   1421.592   21.08850
    -249.38      0.00   1421.587   21.08857
    -248.35      0.00   1421.582   21.08864
    -247.32      0.00   1421.578   21.08872
    -246.29      0.00   1421.573   21.08879
    -245.25      0.00   1421.568   21.08886
    -244.22      0.00   1421.563   21.08893
    -243.19      0.00   1421.558   21.08901
    -242.16      0.00   1421.553   21.08908
    -241.13      0.00   1421.548   21.08915
    -240.10      0.00   1421.543   21.08922
    -239.07      0.00   1421.539   21.08929
    -238.04      0.00   1421.534   21.08937
    -237.01      0.00   1421.529   21.08944
    -235.98      0.00   1421.524   21.08951
    -234.95      0.00   1421.519   21.08959
    -233.92      0.00   1421.514   21.08966
    -232.89      0.00   1421.509   21.08973
    -231.86      0.00   1421.504   21.08980
    -230.83      0.00   1421.499   21.08988
    -229.80      0.00   1421.495   21.08995
    -228.77      0.00   1421.490   21.09002
    -227.74      0.00   1421.485   21.09009
    -226.71      0.00   1421.480   21.09016
    -225.68      0.00   1421.475   21.09024
    -224.65      0.00   1421.470   21.09031
    -223.61      0.01   1421.465   21.09038
    -222.58      0.01   1421.460   21.09046
    -221.55      0.00   1421.455   21.09053
    -220.52      0.01   1421.451   21.09060
    -219.49      0.00   1421.446   21.09067
    -218.46      0.00   1421.441   21.09075
    -217.43      0.00   1421.436   21.09082
    -216.40      0.00   1421.431   21.09089
    -215.37      0.00   1421.426   21.09096
    -214.34      0.00   1421.421   21.09103
    -213.31      0.01   1421.417   21.09111
    -212.28      0.01   1421.411   21.09118
    -211.25      0.00   1421.407   21.09125
    -210.22      0.00   1421.402   21.09133
    -209.19      0.00   1421.397   21.09140
    -208.16      0.00   1421.392   21.09147
    -207.13      0.01   1421.387   21.09154
    -206.10      0.01   1421.382   21.09162
    -205.07      0.01   1421.377   21.09169
    -204.04      0.01   1421.372   21.09176
    -203.01      0.01   1421.368   21.09183
    -201.97      0.01   1421.363   21.09190
    -200.94      0.01   1421.358   21.09198
    -199.91      0.01   1421.353   21.09205
    -198.88      0.01   1421.348   21.09212
    -197.85      0.01   1421.343   21.09220
    -196.82      0.01   1421.338   21.09227
    -195.79      0.01   1421.333   21.09234
    -194.76      0.01   1421.329   21.09241
    -193.73      0.00   1421.324   21.09248
    -192.70      0.01   1421.319   21.09256
    -191.67      0.01   1421.314   21.09263
    -190.64      0.01   1421.309   21.09270
    -189.61      0.01   1421.304   21.09277
    -188.58      0.01   1421.299   21.09284
    -187.55      0.01   1421.294   21.09292
    -186.52      0.01   1421.289   21.09299
    -185.49      0.01   1421.285   21.09306
    -184.46      0.00   1421.280   21.09314
    -183.43      0.00   1421.275   21.09321
    -182.40      0.01   1421.270   21.09328
    -181.36      0.01   1421.265   21.09335
    -180.33      0.01   1421.260   21.09343
    -179.30      0.01   1421.255   21.09350
    -178.27      0.01   1421.250   21.09357
    -177.24      0.01   1421.246   21.09364
    -176.21      0.01   1421.241   21.09371
    -175.18      0.01   1421.236   21.09379
    -174.15      0.01   1421.231   21.09386
    -173.12      0.01   1421.226   21.09393
    -172.09      0.01   1421.221   21.09401
    -171.06      0.01   1421.216   21.09408
    -170.03      0.01   1421.211   21.09415
    -169.00      0.01   1421.207   21.09422
    -167.97      0.01   1421.202   21.09430
    -166.94      0.01   1421.197   21.09437
    -165.91      0.01   1421.192   21.09444
    -164.88      0.01   1421.187   21.09451
    -163.85      0.01   1421.182   21.09458
    -162.82      0.01   1421.177   21.09466
    -161.79      0.01   1421.172   21.09473
    -160.76      0.01   1421.167   21.09480
    -159.72      0.02   1421.162   21.09488
    -158.69      0.02   1421.158   21.09495
    -157.66      0.02   1421.153   21.09502
    -156.63      0.02   1421.148   21.09509
    -155.60      0.02   1421.143   21.09517
    -154.57      0.02   1421.138   21.09524
    -153.54      0.02   1421.133   21.09531
    -152.51      0.03   1421.128   21.09538
    -151.48      0.03   1421.124   21.09545
    -150.45      0.03   1421.119   21.09553
    -149.42      0.03   1421.114   21.09560
    -148.39      0.03   1421.109   21.09567
    -147.36      0.04   1421.104   21.09575
    -146.33      0.04   1421.099   21.09582
    -145.30      0.04   1421.094   21.09589
    -144.27      0.05   1421.089   21.09596
    -143.24      0.05   1421.084   21.09603
    -142.21      0.05   1421.079   21.09611
    -141.18      0.06   1421.075   21.09618
    -140.15      0.06   1421.070   21.09625
    -139.12      0.07   1421.065   21.09632
    -138.08      0.07   1421.060   21.09640
    -137.05      0.08   1421.055   21.09647
    -136.02      0.08   1421.050   21.09654
    -134.99      0.09   1421.045   21.09661
    -133.96      0.09   1421.040   21.09669
    -132.93      0.10   1421.036   21.09676
    -131.90      0.11   1421.031   21.09683
    -130.87      0.12   1421.026   21.09690
    -129.84      0.13   1421.021   21.09698
    -128.81      0.14   1421.016   21.09705
    -127.78      0.15   1421.011   21.09712
    -126.75      0.16   1421.006   21.09719
    -125.72      0.17   1421.001   21.09727
    -124.69      0.19   1420.997   21.09734
    -123.66      0.20   1420.992   21.09741
    -122.63      0.21   1420.987   21.09748
    -121.60      0.23   1420.982   21.09756
    -120.57      0.24   1420.977   21.09763
    -119.54      0.26   1420.972   21.09770
    -118.51      0.27   1420.967   21.09777
    -117.48      0.29   1420.962   21.09785
    -116.44      0.31   1420.957   21.09792
    -115.41      0.32   1420.953   21.09799
    -114.38      0.34   1420.948   21.09806
    -113.35      0.36   1420.943   21.09814
    -112.32      0.38   1420.938   21.09821
    -111.29      0.40   1420.933   21.09828
    -110.26      0.42   1420.928   21.09836
    -109.23      0.44   1420.923   21.09843
    -108.20      0.46   1420.918   21.09850
    -107.17      0.47   1420.914   21.09857
    -106.14      0.48   1420.909   21.09864
    -105.11      0.50   1420.904   21.09872
    -104.08      0.51   1420.899   21.09879
    -103.05      0.52   1420.894   21.09886
    -102.02      0.53   1420.889   21.09893
    -100.99      0.54   1420.884   21.09901
     -99.96      0.54   1420.879   21.09908
     -98.93      0.55   1420.875   21.09915
     -97.90      0.55   1420.870   21.09923
     -96.87      0.56   1420.865   21.09930
     -95.83      0.56   1420.860   21.09937
     -94.80      0.56   1420.855   21.09944
     -93.77      0.57   1420.850   21.09951
     -92.74      0.58   1420.845   21.09959
     -91.71      0.58   1420.840   21.09966
     -90.68      0.59   1420.835   21.09973
     -89.65      0.59   1420.831   21.09980
     -88.62      0.60   1420.826   21.09988
     -87.59      0.60   1420.821   21.09995
     -86.56      0.60   1420.816   21.10002
     -85.53      0.60   1420.811   21.10010
     -84.50      0.60   1420.806   21.10017
     -83.47      0.60   1420.801   21.10024
     -82.44      0.61   1420.796   21.10031
     -81.41      0.61   1420.792   21.10038
     -80.38      0.61   1420.787   21.10046
     -79.35      0.62   1420.782   21.10053
     -78.32      0.62   1420.777   21.10060
     -77.29      0.62   1420.772   21.10067
     -76.26      0.63   1420.767   21.10075
     -75.23      0.63   1420.762   21.10082
     -74.19      0.63   1420.757   21.10089
     -73.16      0.62   1420.752   21.10097
     -72.13      0.62   1420.747   21.10104
     -71.10      0.61   1420.743   21.10111
     -70.07      0.60   1420.738   21.10118
     -69.04      0.59   1420.733   21.10125
     -68.01      0.58   1420.728   21.10133
     -66.98      0.56   1420.723   21.10140
     -65.95      0.55   1420.718   21.10147
     -64.92      0.53   1420.713   21.10154
     -63.89      0.52   1420.708   21.10162
     -62.86      0.51   1420.704   21.10169
     -61.83      0.49   1420.699   21.10176
     -60.80      0.48   1420.694   21.10184
     -59.77      0.46   1420.689   21.10191
     -58.74      0.45   1420.684   21.10198
     -57.71      0.44   1420.679   21.10205
     -56.68      0.43   1420.674   21.10213
     -55.65      0.42   1420.669   21.10220
     -54.62      0.42   1420.665   21.10227
     -53.59      0.41   1420.660   21.10234
     -52.55      0.40   1420.655   21.10242
     -51.52      0.40   1420.650   21.10249
     -50.49      0.41   1420.645   21.10256
     -49.46      0.41   1420.640   21.10263
     -48.43      0.41   1420.635   21.10271
     -47.40      0.41   1420.630   21.10278
     -46.37      0.42   1420.625   21.10285
     -45.34      0.43   1420.621   21.10292
     -44.31      0.44   1420.616   21.10299
     -43.28      0.45   1420.611   21.10307
     -42.25      0.46   1420.606   21.10314
     -41.22      0.46   1420.601   21.10321
     -40.19      0.48   1420.596   21.10328
     -39.16      0.49   1420.591   21.10336
     -38.13      0.50   1420.586   21.10343
     -37.10      0.51   1420.582   21.10350
     -36.07      0.53   1420.577   21.10357
     -35.04      0.55   1420.572   21.10365
     -34.01      0.57   1420.567   21.10372
     -32.98      0.60   1420.562   21.10379
     -31.94      0.62   1420.557   21.10386
     -30.91      0.65   1420.552   21.10394
     -29.88      0.69   1420.547   21.10401
     -28.85      0.73   1420.542   21.10408
     -27.82      0.77   1420.538   21.10415
     -26.79      0.83   1420.533   21.10423
     -25.76      0.89   1420.528   21.10430
     -24.73      0.96   1420.523   21.10437
     -23.70      1.04   1420.518   21.10445
     -22.67      1.13   1420.513   21.10452
     -21.64      1.24   1420.508   21.10459
     -20.61      1.36   1420.503   21.10466
     -19.58      1.50   1420.499   21.10474
     -18.55      1.65   1420.494   21.10481
     -17.52      1.83   1420.489   21.10488
     -16.49      2.02   1420.484   21.10496
     -15.46      2.25   1420.479   21.10502
     -14.43      2.50   1420.474   21.10510
     -13.40      2.79   1420.469   21.10517
     -12.37      3.12   1420.464   21.10524
     -11.34      3.49   1420.459   21.10532
     -10.30      3.91   1420.454   21.10539
      -9.27      4.38   1420.450   21.10546
      -8.24      4.92   1420.445   21.10553
      -7.21      5.52   1420.440   21.10561
      -6.18      6.21   1420.435   21.10568
      -5.15      6.99   1420.430   21.10575
      -4.12      7.91   1420.425   21.10582
      -3.09      8.94   1420.421   21.10589
      -2.06      9.97   1420.416   21.10597
      -1.03     10.77   1420.411   21.10604
       0.00     11.23   1420.406   21.10611
       1.03     11.36   1420.401   21.10619
       2.06     11.24   1420.396   21.10626
       3.09     10.92   1420.391   21.10633
       4.12     10.44   1420.386   21.10641
       5.15      9.86   1420.381   21.10648
       6.18      9.20   1420.376   21.10655
       7.21      8.48   1420.372   21.10662
       8.24      7.74   1420.367   21.10670
       9.27      7.05   1420.362   21.10677
      10.30      6.40   1420.357   21.10684
      11.34      5.79   1420.352   21.10691
      12.37      5.20   1420.347   21.10699
      13.40      4.66   1420.342   21.10706
      14.43      4.17   1420.337   21.10713
      15.46      3.71   1420.333   21.10720
      16.49      3.30   1420.328   21.10728
      17.52      2.94   1420.323   21.10735
      18.55      2.60   1420.318   21.10742
      19.58      2.30   1420.313   21.10749
      20.61      2.04   1420.308   21.10756
      21.64      1.80   1420.303   21.10764
      22.67      1.59   1420.298   21.10771
      23.70      1.41   1420.293   21.10778
      24.73      1.24   1420.289   21.10785
      25.76      1.10   1420.284   21.10793
      26.79      0.97   1420.279   21.10800
      27.82      0.86   1420.274   21.10807
      28.85      0.76   1420.269   21.10815
      29.88      0.67   1420.264   21.10822
      30.91      0.60   1420.259   21.10829
      31.94      0.53   1420.254   21.10836
      32.98      0.47   1420.250   21.10844
      34.01      0.41   1420.245   21.10851
      35.04      0.37   1420.240   21.10858
      36.07      0.33   1420.235   21.10865
      37.10      0.29   1420.230   21.10873
      38.13      0.26   1420.225   21.10880
      39.16      0.23   1420.220   21.10887
      40.19      0.21   1420.215   21.10894
      41.22      0.19   1420.210   21.10902
      42.25      0.17   1420.206   21.10909
      43.28      0.15   1420.201   21.10916
      44.31      0.14   1420.196   21.10923
      45.34      0.12   1420.191   21.10931
      46.37      0.11   1420.186   21.10938
      47.40      0.10   1420.181   21.10945
      48.43      0.10   1420.176   21.10953
      49.46      0.09   1420.171   21.10960
      50.49      0.08   1420.167   21.10967
      51.52      0.07   1420.162   21.10974
      52.55      0.07   1420.157   21.10982
      53.59      0.07   1420.152   21.10989
      54.62      0.06   1420.147   21.10996
      55.65      0.06   1420.142   21.11003
      56.68      0.05   1420.137   21.11011
      57.71      0.05   1420.132   21.11018
      58.74      0.04   1420.127   21.11025
      59.77      0.04   1420.123   21.11032
      60.80      0.04   1420.118   21.11039
